     PARAMETERS FOR PARTICLE DISTRIBUTION/SINGLE WAVENUMBER
     ******************************************************

     WAVENUMBER             = 0.100E+05 CM-1
     MINIMUM PARTICLE RADIUS= 0.100E-09 MICROM
     MAXIMUM PARTICLE RADIUS= 0.100E+11 MICROM
     REFRACTIVE INDEX       = 1.30149-1.62000E-06i
     PARTICLE DENSITY       = 7.400E+01 PER CM**3
     DISTRIBUTION FUNCTION: N(R)=1.61942E-04*R**7.6*EXP(-0.74074E+00*R**1.0)



     MIE-PARAMETERS ARE CALCULATED FOR  16.00000  < X < 216.00000


 INTEGRATION WITH   9 NODES, AND A DX =25.000

  ETA (CM-1)      1.000E+04
  KAPPA (CM-1)    1.250E-07
  SIGMA (CM-1)    3.675E-04
  BETA  (CM-1)    3.676E-04
  GCOS  ( -- )    8.691E-01
        A(  1)    2.60744
        A(  2)    4.02359
        A(  3)    4.85462
        A(  4)    5.53582
        A(  5)    6.29942
        A(  6)    6.88010
        A(  7)    7.63828
        A(  8)    8.43823
        A(  9)    9.15186
        A( 10)   10.07176
        A( 11)   10.83930
        A( 12)   11.61929
        A( 13)   12.45177
        A( 14)   13.15704
        A( 15)   13.94986
        A( 16)   14.78069
        A( 17)   15.49909
        A( 18)   16.35163
        A( 19)   17.07428
        A( 20)   17.79402
        A( 21)   18.52681
        A( 22)   19.14514
        A( 23)   19.80035
        A( 24)   20.43466
        A( 25)   21.00274
        A( 26)   21.66421
        A( 27)   22.23027
        A( 28)   22.84628
        A( 29)   23.45556
        A( 30)   24.01848
        A( 31)   24.61208
        A( 32)   25.17086
        A( 33)   25.66677
        A( 34)   26.22281
        A( 35)   26.68348
        A( 36)   27.16928
        A( 37)   27.61368
        A( 38)   28.05162
        A( 39)   28.48253
        A( 40)   28.90446
        A( 41)   29.29605
        A( 42)   29.73249
        A( 43)   30.10734
        A( 44)   30.50153
        A( 45)   30.89605
        A( 46)   31.26630
        A( 47)   31.64672
        A( 48)   32.01326
        A( 49)   32.36759
        A( 50)   32.73208
        A( 51)   33.05150
        A( 52)   33.39990
        A( 53)   33.70325
        A( 54)   34.01408
        A( 55)   34.28732
        A( 56)   34.57089
        A( 57)   34.80049
        A( 58)   35.04135
        A( 59)   35.24988
        A( 60)   35.41960
        A( 61)   35.61538
        A( 62)   35.74214
        A( 63)   35.89954
        A( 64)   36.03314
        A( 65)   36.13688
        A( 66)   36.29763
        A( 67)   36.37607
        A( 68)   36.54542
        A( 69)   36.64185
        A( 70)   36.76381
        A( 71)   36.87288
        A( 72)   36.91200
        A( 73)   36.96404
        A( 74)   36.89861
        A( 75)   36.82197
        A( 76)   36.73142
        A( 77)   36.64457
        A( 78)   36.61669
        A( 79)   36.57512
        A( 80)   36.53106
        A( 81)   36.47545
        A( 82)   36.38498
        A( 83)   36.29578
        A( 84)   36.19544
        A( 85)   36.11501
        A( 86)   36.05286
        A( 87)   35.96202
        A( 88)   35.90654
        A( 89)   35.76238
        A( 90)   35.70821
        A( 91)   35.54301
        A( 92)   35.43609
        A( 93)   35.26677
        A( 94)   35.10178
        A( 95)   34.88251
        A( 96)   34.69164
        A( 97)   34.39513
        A( 98)   34.17247
        A( 99)   33.83818
        A(100)   33.54784
        A(101)   33.18535
        A(102)   32.84912
        A(103)   32.44393
        A(104)   32.11517
        A(105)   31.69715
        A(106)   31.38200
        A(107)   31.01938
        A(108)   30.71862
        A(109)   30.43924
        A(110)   30.13049
        A(111)   29.86273
        A(112)   29.56776
        A(113)   29.21031
        A(114)   28.86785
        A(115)   28.46472
        A(116)   28.00495
        A(117)   27.59514
        A(118)   27.09730
        A(119)   26.66027
        A(120)   26.32291
        A(121)   26.00714
        A(122)   25.81761
        A(123)   25.62159
        A(124)   25.33219
        A(125)   25.13473
        A(126)   24.90096
        A(127)   24.72073
        A(128)   24.67218
        A(129)   24.52778
        A(130)   24.45729
        A(131)   24.34861
        A(132)   24.19925
        A(133)   24.09373
        A(134)   23.99795
        A(135)   23.80490
        A(136)   23.66198
        A(137)   23.31065
        A(138)   22.98915
        A(139)   22.60012
        A(140)   22.15740
        A(141)   21.69025
        A(142)   21.14802
        A(143)   20.62058
        A(144)   20.13616
        A(145)   19.58544
        A(146)   19.23279
        A(147)   18.82022
        A(148)   18.54434
        A(149)   18.36872
        A(150)   18.17204
        A(151)   18.10219
        A(152)   17.96537
        A(153)   17.80216
        A(154)   17.64539
        A(155)   17.20220
        A(156)   16.80574
        A(157)   16.24446
        A(158)   15.49422
        A(159)   14.88912
        A(160)   14.23192
        A(161)   13.71531
        A(162)   13.45660
        A(163)   13.18461
        A(164)   13.27572
        A(165)   13.39866
        A(166)   13.25800
        A(167)   12.99321
        A(168)   12.34940
        A(169)   11.60918
        A(170)   11.18909
        A(171)   10.75127
        A(172)   10.63593
        A(173)   10.63642
        A(174)   10.46519
        A(175)   10.47884
        A(176)   10.31046
        A(177)    9.94503
        A(178)    9.71014
        A(179)    9.17226
        A(180)    8.82353
        A(181)    8.60130
        A(182)    8.38888
        A(183)    8.34853
        A(184)    8.28511
        A(185)    8.05691
        A(186)    7.86295
        A(187)    7.56426
        A(188)    7.38543
        A(189)    7.33131
        A(190)    7.25271
        A(191)    7.23655
        A(192)    7.07142
        A(193)    7.00164
        A(194)    6.99275
        A(195)    6.84196
        A(196)    6.88388
        A(197)    6.56844
        A(198)    6.41190
        A(199)    6.21184
        A(200)    6.00495
        A(201)    5.82493
        A(202)    5.63760
        A(203)    5.50279
        A(204)    5.41263
        A(205)    5.32362
        A(206)    5.28843
        A(207)    5.22646
        A(208)    5.14525
        A(209)    5.07030
        A(210)    4.91345
        A(211)    4.76026
        A(212)    4.63522
        A(213)    4.52348
        A(214)    4.54138
        A(215)    4.55550
        A(216)    4.52646
        A(217)    4.48563
        A(218)    4.32466
        A(219)    4.16900
        A(220)    4.05507
        A(221)    3.90267
        A(222)    3.83568
        A(223)    3.73141
        A(224)    3.59227
        A(225)    3.48255
        A(226)    3.30577
        A(227)    3.16893
        A(228)    3.07602
        A(229)    2.96955
        A(230)    2.96322
        A(231)    2.91921
        A(232)    2.88665
        A(233)    2.87114
        A(234)    2.81105
        A(235)    2.78766
        A(236)    2.75538
        A(237)    2.68998
        A(238)    2.64713
        A(239)    2.50483
        A(240)    2.40830
        A(241)    2.28525
        A(242)    2.17730
        A(243)    2.09856
        A(244)    2.02386
        A(245)    2.00069
        A(246)    1.98530
        A(247)    1.97827
        A(248)    2.00127
        A(249)    1.98126
        A(250)    1.94625
        A(251)    1.89141
        A(252)    1.78330
        A(253)    1.69753
        A(254)    1.59492
        A(255)    1.49169
        A(256)    1.46009
        A(257)    1.43773
        A(258)    1.45099
        A(259)    1.47085
        A(260)    1.40514
        A(261)    1.33834
        A(262)    1.25584
        A(263)    1.17048
        A(264)    1.15780
        A(265)    1.11728
        A(266)    1.07250
        A(267)    1.03717
        A(268)    0.94744
        A(269)    0.90621
        A(270)    0.87698
        A(271)    0.83594
        A(272)    0.84607
        A(273)    0.80529
        A(274)    0.76206
        A(275)    0.73318
        A(276)    0.66537
        A(277)    0.64415
        A(278)    0.61566
        A(279)    0.57326
        A(280)    0.55825
        A(281)    0.50503
        A(282)    0.47505
        A(283)    0.44617
        A(284)    0.41743
        A(285)    0.39990
        A(286)    0.38543
        A(287)    0.37910
        A(288)    0.37216
        A(289)    0.37129
        A(290)    0.36373
        A(291)    0.35006
        A(292)    0.34747
        A(293)    0.33436
        A(294)    0.33233
        A(295)    0.32091
        A(296)    0.31373
        A(297)    0.30605
        A(298)    0.30995
        A(299)    0.30259
        A(300)    0.30341
        A(301)    0.30260
        A(302)    0.29617
        A(303)    0.28851
        A(304)    0.27263
        A(305)    0.25586
        A(306)    0.24557
        A(307)    0.23644
        A(308)    0.23539
        A(309)    0.23422
        A(310)    0.22850
        A(311)    0.22468
        A(312)    0.21639
        A(313)    0.20889
        A(314)    0.20602
        A(315)    0.19902
        A(316)    0.19645
        A(317)    0.19366
        A(318)    0.18815
        A(319)    0.18607
        A(320)    0.17929
        A(321)    0.17075
        A(322)    0.16344
        A(323)    0.15137
        A(324)    0.14446
        A(325)    0.13850
        A(326)    0.13343
        A(327)    0.13208
        A(328)    0.12859
        A(329)    0.12576
        A(330)    0.12350
        A(331)    0.11920
        A(332)    0.11791
        A(333)    0.11350
        A(334)    0.10933
        A(335)    0.10379
        A(336)    0.09679
        A(337)    0.09198
        A(338)    0.08784
        A(339)    0.08446
        A(340)    0.08576
        A(341)    0.08311
        A(342)    0.08411
        A(343)    0.08305
        A(344)    0.08059
        A(345)    0.07862
        A(346)    0.07344
        A(347)    0.06870
        A(348)    0.06456
        A(349)    0.06055
        A(350)    0.06139
        A(351)    0.06251
        A(352)    0.06231
        A(353)    0.06150
        A(354)    0.05586
        A(355)    0.05085
        A(356)    0.04809
        A(357)    0.04542
        A(358)    0.04668
        A(359)    0.04670
        A(360)    0.04447
        A(361)    0.04311
        A(362)    0.03843
        A(363)    0.03505
        A(364)    0.03360
        A(365)    0.03069
        A(366)    0.03108
        A(367)    0.03024
        A(368)    0.02791
        A(369)    0.02716
        A(370)    0.02341
        A(371)    0.02112
        A(372)    0.02026
        A(373)    0.01802
        A(374)    0.01869
        A(375)    0.01739
        A(376)    0.01523
        A(377)    0.01408
        A(378)    0.01075
        A(379)    0.00969
        A(380)    0.00898
        A(381)    0.00743
        A(382)    0.00770
        A(383)    0.00581
        A(384)    0.00513
        A(385)    0.00470
        A(386)    0.00396
        A(387)    0.00385
        A(388)    0.00335
        A(389)    0.00303
        A(390)    0.00279
        A(391)    0.00266
        A(392)    0.00267
        A(393)    0.00254
        A(394)    0.00262
        A(395)    0.00257
        A(396)    0.00257
        A(397)    0.00239
        A(398)    0.00219
        A(399)    0.00197
        A(400)    0.00201
        A(401)    0.00196
        A(402)    0.00196
        A(403)    0.00194
        A(404)    0.00178
        A(405)    0.00169
        A(406)    0.00162
        A(407)    0.00152
        A(408)    0.00154
        A(409)    0.00144
        A(410)    0.00135
        A(411)    0.00129
        A(412)    0.00114
        A(413)    0.00111
        A(414)    0.00109
        A(415)    0.00101
        A(416)    0.00102
        A(417)    0.00092
        A(418)    0.00082
        A(419)    0.00078
        A(420)    0.00066
        A(421)    0.00065
        A(422)    0.00063
        A(423)    0.00055
        A(424)    0.00054
        A(425)    0.00042
        A(426)    0.00036
        A(427)    0.00033
        A(428)    0.00027
        A(429)    0.00028
        A(430)    0.00026
        A(431)    0.00020
        A(432)    0.00018
        A(433)    0.00012
        A(434)    0.00010
        A(435)    0.00008
        A(436)    0.00006
        A(437)    0.00005
        A(438)    0.00003
        A(439)    0.00002
        A(440)    0.00002
        A(441)    0.00000
        A(442)    0.00003
        A(443)    0.00000
        A(444)    0.00000
        A(445)    0.00000
        A(446)    0.00000
        A(447)    0.00000
        A(448)    0.00000
        A(449)    0.00000
        A(450)    0.00000
        A(451)    0.00000
        A(452)    0.00000




 INTEGRATION WITH  17 NODES, AND A DX =12.500

  ETA (CM-1)      1.000E+04
  KAPPA (CM-1)    9.997E-08
  SIGMA (CM-1)    3.667E-04
  BETA  (CM-1)    3.668E-04
  GCOS  ( -- )    8.708E-01
        A(  1)    2.55067
        A(  2)    3.91910
        A(  3)    4.71954
        A(  4)    5.36340
        A(  5)    6.07516
        A(  6)    6.63013
        A(  7)    7.35331
        A(  8)    8.12918
        A(  9)    8.77193
        A( 10)    9.63723
        A( 11)   10.34346
        A( 12)   11.07358
        A( 13)   11.88153
        A( 14)   12.55927
        A( 15)   13.30598
        A( 16)   14.08352
        A( 17)   14.72637
        A( 18)   15.52035
        A( 19)   16.16936
        A( 20)   16.83596
        A( 21)   17.52318
        A( 22)   18.11390
        A( 23)   18.74703
        A( 24)   19.37531
        A( 25)   19.91029
        A( 26)   20.54958
        A( 27)   21.07451
        A( 28)   21.64848
        A( 29)   22.19110
        A( 30)   22.68942
        A( 31)   23.20474
        A( 32)   23.68714
        A( 33)   24.12028
        A( 34)   24.59372
        A( 35)   24.98952
        A( 36)   25.41187
        A( 37)   25.79821
        A( 38)   26.17935
        A( 39)   26.55754
        A( 40)   26.93014
        A( 41)   27.27614
        A( 42)   27.66825
        A( 43)   27.99910
        A( 44)   28.37028
        A( 45)   28.71350
        A( 46)   29.07159
        A( 47)   29.41528
        A( 48)   29.76142
        A( 49)   30.10305
        A( 50)   30.43293
        A( 51)   30.75593
        A( 52)   31.07463
        A( 53)   31.37156
        A( 54)   31.68337
        A( 55)   31.95456
        A( 56)   32.25490
        A( 57)   32.50731
        A( 58)   32.77324
        A( 59)   33.01446
        A( 60)   33.23515
        A( 61)   33.45657
        A( 62)   33.63830
        A( 63)   33.82094
        A( 64)   33.98413
        A( 65)   34.11210
        A( 66)   34.26181
        A( 67)   34.33665
        A( 68)   34.45462
        A( 69)   34.49670
        A( 70)   34.54240
        A( 71)   34.57581
        A( 72)   34.52883
        A( 73)   34.52790
        A( 74)   34.40865
        A( 75)   34.31259
        A( 76)   34.15808
        A( 77)   33.99080
        A( 78)   33.80388
        A( 79)   33.60825
        A( 80)   33.36908
        A( 81)   33.14052
        A( 82)   32.87506
        A( 83)   32.63180
        A( 84)   32.36902
        A( 85)   32.15524
        A( 86)   31.92313
        A( 87)   31.75333
        A( 88)   31.57540
        A( 89)   31.43292
        A( 90)   31.29980
        A( 91)   31.16523
        A( 92)   31.02791
        A( 93)   30.85862
        A( 94)   30.63796
        A( 95)   30.39379
        A( 96)   30.05384
        A( 97)   29.70615
        A( 98)   29.37271
        A( 99)   29.09665
        A(100)   28.89350
        A(101)   28.69832
        A(102)   28.51858
        A(103)   28.30292
        A(104)   28.10720
        A(105)   27.88024
        A(106)   27.69631
        A(107)   27.51317
        A(108)   27.38729
        A(109)   27.28377
        A(110)   27.20280
        A(111)   27.10550
        A(112)   27.01964
        A(113)   26.87988
        A(114)   26.69386
        A(115)   26.49341
        A(116)   26.18706
        A(117)   25.87872
        A(118)   25.49465
        A(119)   25.09252
        A(120)   24.71685
        A(121)   24.34685
        A(122)   23.97813
        A(123)   23.62269
        A(124)   23.22232
        A(125)   22.82213
        A(126)   22.48215
        A(127)   22.17241
        A(128)   21.93693
        A(129)   21.75163
        A(130)   21.54343
        A(131)   21.39603
        A(132)   21.19666
        A(133)   20.95086
        A(134)   20.74242
        A(135)   20.35782
        A(136)   19.92523
        A(137)   19.44531
        A(138)   18.87171
        A(139)   18.39206
        A(140)   17.95378
        A(141)   17.54425
        A(142)   17.37463
        A(143)   17.22749
        A(144)   17.07325
        A(145)   16.86975
        A(146)   16.45906
        A(147)   16.02633
        A(148)   15.70839
        A(149)   15.40355
        A(150)   15.31451
        A(151)   15.24214
        A(152)   15.09789
        A(153)   15.02689
        A(154)   14.80419
        A(155)   14.54538
        A(156)   14.34436
        A(157)   13.99350
        A(158)   13.74234
        A(159)   13.40386
        A(160)   13.09486
        A(161)   12.77801
        A(162)   12.51276
        A(163)   12.19711
        A(164)   11.97848
        A(165)   11.75117
        A(166)   11.58726
        A(167)   11.29087
        A(168)   11.04969
        A(169)   10.79977
        A(170)   10.63304
        A(171)   10.52706
        A(172)   10.43372
        A(173)   10.40768
        A(174)   10.29833
        A(175)   10.16479
        A(176)    9.99285
        A(177)    9.67512
        A(178)    9.35618
        A(179)    8.97426
        A(180)    8.56506
        A(181)    8.25386
        A(182)    7.97039
        A(183)    7.75475
        A(184)    7.64655
        A(185)    7.48907
        A(186)    7.38934
        A(187)    7.29642
        A(188)    7.09031
        A(189)    6.89734
        A(190)    6.64590
        A(191)    6.40627
        A(192)    6.31810
        A(193)    6.24002
        A(194)    6.18408
        A(195)    6.12234
        A(196)    5.94074
        A(197)    5.75091
        A(198)    5.60392
        A(199)    5.38524
        A(200)    5.28097
        A(201)    5.06902
        A(202)    4.83866
        A(203)    4.67947
        A(204)    4.44841
        A(205)    4.34105
        A(206)    4.24830
        A(207)    4.10961
        A(208)    4.05167
        A(209)    3.89563
        A(210)    3.79168
        A(211)    3.69317
        A(212)    3.61338
        A(213)    3.56067
        A(214)    3.55573
        A(215)    3.54223
        A(216)    3.48369
        A(217)    3.39507
        A(218)    3.26122
        A(219)    3.08997
        A(220)    2.95546
        A(221)    2.81015
        A(222)    2.71045
        A(223)    2.64121
        A(224)    2.55529
        A(225)    2.51623
        A(226)    2.47677
        A(227)    2.42468
        A(228)    2.40607
        A(229)    2.34376
        A(230)    2.27955
        A(231)    2.20034
        A(232)    2.06831
        A(233)    1.94228
        A(234)    1.84619
        A(235)    1.78363
        A(236)    1.80672
        A(237)    1.82690
        A(238)    1.81959
        A(239)    1.77188
        A(240)    1.68351
        A(241)    1.58289
        A(242)    1.52537
        A(243)    1.43959
        A(244)    1.39420
        A(245)    1.35618
        A(246)    1.29544
        A(247)    1.27647
        A(248)    1.23077
        A(249)    1.17825
        A(250)    1.14944
        A(251)    1.08179
        A(252)    1.05251
        A(253)    1.02645
        A(254)    0.99715
        A(255)    0.98937
        A(256)    0.96224
        A(257)    0.93254
        A(258)    0.90568
        A(259)    0.86211
        A(260)    0.83575
        A(261)    0.79143
        A(262)    0.76567
        A(263)    0.73279
        A(264)    0.71614
        A(265)    0.69651
        A(266)    0.68508
        A(267)    0.67574
        A(268)    0.68395
        A(269)    0.66731
        A(270)    0.66415
        A(271)    0.64989
        A(272)    0.62804
        A(273)    0.60796
        A(274)    0.57774
        A(275)    0.55749
        A(276)    0.54291
        A(277)    0.52723
        A(278)    0.52900
        A(279)    0.52914
        A(280)    0.52592
        A(281)    0.52029
        A(282)    0.48893
        A(283)    0.45631
